File: Tefas/tahminler/_ann_TGA.csv
x_test,y_test,y_pred,GerçekFark,TahminFark,Gerçek,Tahmin,Ongoru,Skor,mean_squared_error
0.030105,0.030097,0.0480717,-8.000061e-06,0.0179667,False,True,False,-16.1732,0.0206411
0.032745,0.032641,0.0487274,-0.000103999,0.0159824,False,True,False,-16.1732,0.0206411
0.03332,0.033435,0.0488432,0.000115,0.0155232,True,True,True,-16.1732,0.0206411
0.028366,0.028439,0.0478045,7.300079e-05,0.0194385,True,True,True,-16.1732,0.0206411
0.032941,0.032965,0.0487721,2.4002e-05,0.0158311,True,True,True,-16.1732,0.0206411
0.030497,0.030603,0.0482133,0.000106001,0.0177163,True,True,True,-16.1732,0.0206411
0.027652,0.027759,0.0476925,0.000107002,0.0200405,True,True,True,-16.1732,0.0206411
0.02538,0.025324,0.0472673,-5.60004e-05,0.0218873,False,True,False,-16.1732,0.0206411
0.027056,0.027138,0.0475912,8.200109e-05,0.0205352,True,True,True,-16.1732,0.0206411
0.030557,0.030629,0.0481726,7.200055e-05,0.0176156,True,True,True,-16.1732,0.0206411
0.033292,0.033251,0.0488199,-4.10005e-05,0.0155279,False,True,False,-16.1732,0.0206411
0.031954,0.031921,0.0485404,-3.30023e-05,0.0165864,False,True,False,-16.1732,0.0206411
0.028584,0.028682,0.0478467,9.799935e-05,0.0192627,True,True,True,-16.1732,0.0206411
0.020102,0.020169,0.0464338,6.69993e-05,0.0263318,True,True,True,-16.1732,0.0206411
0.021469,0.021454,0.0465504,-1.49999e-05,0.0250814,False,True,False,-16.1732,0.0206411
0.024537,0.024508,0.047107,-2.90014e-05,0.02257,False,True,False,-16.1732,0.0206411
0.033696,0.033657,0.0488938,-3.90001e-05,0.0151978,False,True,False,-16.1732,0.0206411
0.023806,0.023888,0.0469843,8.199923e-05,0.0231783,True,True,True,-16.1732,0.0206411
0.022577,0.02261,0.0467386,3.299862e-05,0.0241616,True,True,True,-16.1732,0.0206411
0.026672,0.026697,0.047521,2.50004e-05,0.020849,True,True,True,-16.1732,0.0206411
0.021278,0.021287,0.0465125,9.000301e-06,0.0252345,True,True,True,-16.1732,0.0206411
0.03593,0.036027,0.0491845,9.699911e-05,0.0132545,True,True,True,-16.1732,0.0206411
0.026156,0.026172,0.0474001,1.60001e-05,0.0212441,True,True,True,-16.1732,0.0206411
0.022494,0.022524,0.0467638,2.99998e-05,0.0242698,True,True,True,-16.1732,0.0206411
0.020425,0.020481,0.0463551,5.60004e-05,0.0259301,True,True,True,-16.1732,0.0206411
0.025636,0.025675,0.0473149,3.90001e-05,0.0216789,True,True,True,-16.1732,0.0206411
0.028868,0.02898,0.0478848,0.000112001,0.0190168,True,True,True,-16.1732,0.0206411
0.024023,0.02406,0.0470116,3.69996e-05,0.0229886,True,True,True,-16.1732,0.0206411
0.020774,0.020884,0.0464303,0.00011,0.0256563,True,True,True,-16.1732,0.0206411
0.034596,0.034697,0.0490032,0.000101,0.0144072,True,True,True,-16.1732,0.0206411
0.026936,0.027122,0.047568,0.000186,0.020632,True,True,True,-16.1732,0.0206411
0.033105,0.033202,0.048811,9.699911e-05,0.015706,True,True,True,-16.1732,0.0206411
0.033214,0.033255,0.0488118,4.10005e-05,0.0155978,True,True,True,-16.1732,0.0206411
0.020661,0.020582,0.0463916,-7.900037e-05,0.0257306,False,True,False,-16.1732,0.0206411
0.030233,0.030179,0.0481017,-5.39999e-05,0.0178687,False,True,False,-16.1732,0.0206411
0.033234,0.033036,0.0488203,-0.000197999,0.0155863,False,True,False,-16.1732,0.0206411
0.021169,0.021186,0.0464848,1.70004e-05,0.0253158,True,True,True,-16.1732,0.0206411
0.024196,0.024231,0.047048,3.49991e-05,0.022852,True,True,True,-16.1732,0.0206411
0.024231,0.024308,0.0470529,7.699989e-05,0.0228219,True,True,True,-16.1732,0.0206411
0.02725,0.027408,0.0476144,0.000158001,0.0203644,True,True,True,-16.1732,0.0206411
0.032525,0.032675,0.0486525,0.000150003,0.0161275,True,True,True,-16.1732,0.0206411
0.020215,0.020352,0.0463282,0.000137001,0.0261132,True,True,True,-16.1732,0.0206411
0.022861,0.023367,0.0468643,0.0005060006,0.0240033,True,True,True,-16.1732,0.0206411
0.022524,0.022523,0.0467678,-9.983778e-07,0.0242438,False,True,False,-16.1732,0.0206411
0.034372,0.034448,0.0489745,7.600337e-05,0.0146025,True,True,True,-16.1732,0.0206411
0.029546,0.029597,0.0479826,5.09992e-05,0.0184366,True,True,True,-16.1732,0.0206411
0.032898,0.032985,0.0487524,8.700043e-05,0.0158544,True,True,True,-16.1732,0.0206411
0.021307,0.021319,0.0465118,1.199916e-05,0.0252048,True,True,True,-16.1732,0.0206411
0.020019,0.020102,0.0464381,8.299947e-05,0.0264191,True,True,True,-16.1732,0.0206411
0.027501,0.027553,0.0476476,5.19995e-05,0.0201466,True,True,True,-16.1732,0.0206411
0.022569,0.02268,0.046749,0.000110999,0.02418,True,True,True,-16.1732,0.0206411
0.03423,0.03442,0.0489559,0.000189997,0.0147259,True,True,True,-16.1732,0.0206411
0.033587,0.033669,0.0488799,8.19974e-05,0.0152929,True,True,True,-16.1732,0.0206411
0.030459,0.030469,0.0481935,1.00005e-05,0.0177345,True,True,True,-16.1732,0.0206411
0.031508,0.031492,0.0484193,-1.60001e-05,0.0169113,False,True,False,-16.1732,0.0206411
0.024382,0.024354,0.0470764,-2.80011e-05,0.0226944,False,True,False,-16.1732,0.0206411
0.021061,0.021058,0.0464636,-2.99886e-06,0.0254026,False,True,False,-16.1732,0.0206411
0.026341,0.026369,0.0474238,2.79993e-05,0.0210828,True,True,True,-16.1732,0.0206411
0.022757,0.022782,0.046812,2.50004e-05,0.024055,True,True,True,-16.1732,0.0206411
0.02253,0.022494,0.0467655,-3.60012e-05,0.0242355,False,True,False,-16.1732,0.0206411
0.034405,0.034509,0.0489907,0.000103999,0.0145857,True,True,True,-16.1732,0.0206411
0.034697,0.034706,0.0490168,9.000301e-06,0.0143198,True,True,True,-16.1732,0.0206411
0.033995,0.034153,0.0489378,0.000158001,0.0149428,True,True,True,-16.1732,0.0206411
0.020639,0.020539,0.046393,-9.999983e-05,0.025754,False,True,False,-16.1732,0.0206411
0.034929,0.034932,0.0490472,2.99886e-06,0.0141182,True,True,True,-16.1732,0.0206411
0.033652,0.033741,0.0488885,8.900091e-05,0.0152365,True,True,True,-16.1732,0.0206411
0.021244,0.021295,0.0465263,5.09992e-05,0.0252823,True,True,True,-16.1732,0.0206411
0.030243,0.030353,0.0481121,0.00011,0.0178691,True,True,True,-16.1732,0.0206411
0.032518,0.032525,0.0486506,6.99982e-06,0.0161326,True,True,True,-16.1732,0.0206411
0.034151,0.034081,0.0489581,-6.99982e-05,0.0148071,False,True,False,-16.1732,0.0206411
0.031699,0.031709,0.0484813,9.998679e-06,0.0167823,True,True,True,-16.1732,0.0206411
0.026734,0.026763,0.0475318,2.89995e-05,0.0207978,True,True,True,-16.1732,0.0206411
0.032288,0.032379,0.0486377,9.100139e-05,0.0163497,True,True,True,-16.1732,0.0206411
0.032156,0.032251,0.0486324,9.499863e-05,0.0164764,True,True,True,-16.1732,0.0206411
0.034706,0.034702,0.049018,-4.000962e-06,0.014312,False,True,False,-16.1732,0.0206411
0.0327,0.032496,0.0487153,-0.0002039969,0.0160153,False,True,False,-16.1732,0.0206411
0.034488,0.034451,0.0489988,-3.69996e-05,0.0145108,False,True,False,-16.1732,0.0206411
0.03184,0.031927,0.0485241,8.700043e-05,0.0166841,True,True,True,-16.1732,0.0206411
0.020569,0.020606,0.0463753,3.69996e-05,0.0258063,True,True,True,-16.1732,0.0206411
0.020382,0.020317,0.0463345,-6.500073e-05,0.0259525,False,True,False,-16.1732,0.0206411
0.02713,0.026965,0.0475899,-0.000165001,0.0204599,False,True,False,-16.1732,0.0206411
0.029486,0.029594,0.0479721,0.000108,0.0184861,True,True,True,-16.1732,0.0206411
0.020507,0.020573,0.0463853,6.59991e-05,0.0258783,True,True,True,-16.1732,0.0206411
0.019925,0.020019,0.0464414,9.400025e-05,0.0265164,True,True,True,-16.1732,0.0206411
0.034679,0.034488,0.0490244,-0.000190999,0.0143454,False,True,False,-16.1732,0.0206411
0.028682,0.028704,0.0478576,2.20016e-05,0.0191756,True,True,True,-16.1732,0.0206411