File: Tefas/tahminler/_ridge_TGA.csv
x_test,y_test,y_pred,GerçekFark,TahminFark,Gerçek,Tahmin,Ongoru,Skor,mean_squared_error
0.030105,0.030097,0.02810248,-8.000061e-06,-0.00200252,False,False,False,0.582556,0.003218142
0.032745,0.032641,0.0292823,-0.000103999,-0.003462717,False,False,False,0.582556,0.003218142
0.03332,0.033435,0.0295778,0.000115,-0.00374217,True,False,False,0.582556,0.003218142
0.028366,0.028439,0.0275712,7.300079e-05,-0.0007948484,True,False,False,0.582556,0.003218142
0.032941,0.032965,0.0294026,2.4002e-05,-0.00353835,True,False,False,0.582556,0.003218142
0.030497,0.030603,0.0284281,0.000106001,-0.00206885,True,False,False,0.582556,0.003218142
0.027652,0.027759,0.0273482,0.000107002,-0.000303842,True,False,False,0.582556,0.003218142
0.02538,0.025324,0.0265904,-5.60004e-05,0.00121037,False,True,False,0.582556,0.003218142
0.027056,0.027138,0.0271886,8.200109e-05,0.0001326,True,True,True,0.582556,0.003218142
0.030557,0.030629,0.0283276,7.200055e-05,-0.00222935,True,False,False,0.582556,0.003218142
0.033292,0.033251,0.0295092,-4.10005e-05,-0.00378281,False,False,False,0.582556,0.003218142
0.031954,0.031921,0.02892987,-3.30023e-05,-0.003024131,False,False,False,0.582556,0.003218142
0.028584,0.028682,0.0276724,9.799935e-05,-0.0009116139,True,False,False,0.582556,0.003218142
0.020102,0.020169,0.024817,6.69993e-05,0.00471501,True,True,True,0.582556,0.003218142
0.021469,0.021454,0.0252494,-1.49999e-05,0.00378039,False,True,False,0.582556,0.003218142
0.024537,0.024508,0.0262793,-2.90014e-05,0.00174234,False,True,False,0.582556,0.003218142
0.033696,0.033657,0.0296451,-3.90001e-05,-0.004050901,False,False,False,0.582556,0.003218142
0.023806,0.023888,0.0260357,8.199923e-05,0.00222972,True,True,True,0.582556,0.003218142
0.022577,0.02261,0.025581,3.299862e-05,0.00300398,True,True,True,0.582556,0.003218142
0.026672,0.026697,0.027079,2.50004e-05,0.000406973,True,True,True,0.582556,0.003218142
0.021278,0.021287,0.02517821,9.000301e-06,0.00390021,True,True,True,0.582556,0.003218142
0.03593,0.036027,0.0301887,9.699911e-05,-0.005741302,True,False,False,0.582556,0.003218142
0.026156,0.026172,0.02681926,1.60001e-05,0.00066326,True,True,True,0.582556,0.003218142
0.022494,0.022524,0.0256751,2.99998e-05,0.00318106,True,True,True,0.582556,0.003218142
0.020425,0.020481,0.02490938,5.60004e-05,0.00448438,True,True,True,0.582556,0.003218142
0.025636,0.025675,0.0266722,3.90001e-05,0.00103624,True,True,True,0.582556,0.003218142
0.028868,0.02898,0.0277463,0.000112001,-0.00112173,True,False,False,0.582556,0.003218142
0.024023,0.02406,0.02608079,3.69996e-05,0.00205779,True,True,True,0.582556,0.003218142
0.020774,0.020884,0.0250362,0.00011,0.00426223,True,True,True,0.582556,0.003218142
0.034596,0.034697,0.02999083,0.000101,-0.00460517,True,False,False,0.582556,0.003218142
0.026936,0.027122,0.0271541,0.000186,0.000218101,True,True,True,0.582556,0.003218142
0.033105,0.033202,0.0295446,9.699911e-05,-0.00356039,True,False,False,0.582556,0.003218142
0.033214,0.033255,0.0295184,4.10005e-05,-0.00369559,True,False,False,0.582556,0.003218142
0.020661,0.020582,0.0249714,-7.900037e-05,0.004310379,False,True,False,0.582556,0.003218142
0.030233,0.030179,0.0281688,-5.39999e-05,-0.00206419,False,False,False,0.582556,0.003218142
0.033234,0.033036,0.0295385,-0.000197999,-0.00369547,False,False,False,0.582556,0.003218142
0.021169,0.021186,0.0251209,1.70004e-05,0.003951896,True,True,True,0.582556,0.003218142
0.024196,0.024231,0.026156,3.49991e-05,0.00196004,True,True,True,0.582556,0.003218142
0.024231,0.024308,0.0261651,7.699989e-05,0.00193407,True,True,True,0.582556,0.003218142
0.02725,0.027408,0.0272181,0.000158001,-3.19313e-05,True,False,False,0.582556,0.003218142
0.032525,0.032675,0.0291145,0.000150003,-0.003410451,True,False,False,0.582556,0.003218142
0.020215,0.020352,0.0248548,0.000137001,0.004639838,True,True,True,0.582556,0.003218142
0.022861,0.023367,0.02585295,0.0005060006,0.00299195,True,True,True,0.582556,0.003218142
0.022524,0.022523,0.0256811,-9.983778e-07,0.00315706,False,True,False,0.582556,0.003218142
0.034372,0.034448,0.0299345,7.600337e-05,-0.0044375,True,False,False,0.582556,0.003218142
0.029546,0.029597,0.02793465,5.09992e-05,-0.00161135,True,False,False,0.582556,0.003218142
0.032898,0.032985,0.0293118,8.700043e-05,-0.00358622,True,False,False,0.582556,0.003218142
0.021307,0.021319,0.0251728,1.199916e-05,0.00386575,True,True,True,0.582556,0.003218142
0.020019,0.020102,0.02481222,8.299947e-05,0.00479322,True,True,True,0.582556,0.003218142
0.027501,0.027553,0.0272638,5.19995e-05,-0.000237195,True,False,False,0.582556,0.003218142
0.022569,0.02268,0.02561384,0.000110999,0.00304484,True,True,True,0.582556,0.003218142
0.03423,0.03442,0.02993,0.000189997,-0.004299976,True,False,False,0.582556,0.003218142
0.033587,0.033669,0.02961227,8.19974e-05,-0.003974732,True,False,False,0.582556,0.003218142
0.030459,0.030469,0.0283941,1.00005e-05,-0.00206487,True,False,False,0.582556,0.003218142
0.031508,0.031492,0.0287186,-1.60001e-05,-0.00278936,False,False,False,0.582556,0.003218142
0.024382,0.024354,0.026209,-2.80011e-05,0.00182698,False,True,False,0.582556,0.003218142
0.021061,0.021058,0.0250805,-2.99886e-06,0.004019499,False,True,False,0.582556,0.003218142
0.026341,0.026369,0.0268565,2.79993e-05,0.0005155001,True,True,True,0.582556,0.003218142
0.022757,0.022782,0.0257631,2.50004e-05,0.00300611,True,True,True,0.582556,0.003218142
0.02253,0.022494,0.02567517,-3.60012e-05,0.00314517,False,True,False,0.582556,0.003218142
0.034405,0.034509,0.0298317,0.000103999,-0.00457327,True,False,False,0.582556,0.003218142
0.034697,0.034706,0.0300026,9.000301e-06,-0.004694402,True,False,False,0.582556,0.003218142
0.033995,0.034153,0.0297593,0.000158001,-0.004235655,True,False,False,0.582556,0.003218142
0.020639,0.020539,0.0249782,-9.999983e-05,0.00433919,False,True,False,0.582556,0.003218142
0.034929,0.034932,0.0300487,2.99886e-06,-0.004880322,True,False,False,0.582556,0.003218142
0.033652,0.033741,0.0296327,8.900091e-05,-0.00401934,True,False,False,0.582556,0.003218142
0.021244,0.021295,0.0252164,5.09992e-05,0.003972372,True,True,True,0.582556,0.003218142
0.030243,0.030353,0.0281969,0.00011,-0.00204613,True,False,False,0.582556,0.003218142
0.032518,0.032525,0.0291081,6.99982e-06,-0.00340988,True,False,False,0.582556,0.003218142
0.034151,0.034081,0.0297643,-6.99982e-05,-0.004386738,False,False,False,0.582556,0.003218142
0.031699,0.031709,0.0288357,9.998679e-06,-0.00286334,True,False,False,0.582556,0.003218142
0.026734,0.026763,0.0270966,2.89995e-05,0.0003626328,True,True,True,0.582556,0.003218142
0.032288,0.032379,0.0291491,9.100139e-05,-0.00313888,True,False,False,0.582556,0.003218142
0.032156,0.032251,0.0291626,9.499863e-05,-0.00299339,True,False,False,0.582556,0.003218142
0.034706,0.034702,0.0300066,-4.000962e-06,-0.0046994,False,False,False,0.582556,0.003218142
0.0327,0.032496,0.02924535,-0.0002039969,-0.003454648,False,False,False,0.582556,0.003218142
0.034488,0.034451,0.0298704,-3.69996e-05,-0.004617594,False,False,False,0.582556,0.003218142
0.03184,0.031927,0.02890763,8.700043e-05,-0.00293237,True,False,False,0.582556,0.003218142
0.020569,0.020606,0.0249404,3.69996e-05,0.00437138,True,True,True,0.582556,0.003218142
0.020382,0.020317,0.0248298,-6.500073e-05,0.00444778,False,True,False,0.582556,0.003218142
0.02713,0.026965,0.0271821,-0.000165001,5.21373e-05,False,True,False,0.582556,0.003218142
0.029486,0.029594,0.0279109,0.000108,-0.00157509,True,False,False,0.582556,0.003218142
0.020507,0.020573,0.0249721,6.59991e-05,0.0044651,True,True,True,0.582556,0.003218142
0.019925,0.020019,0.02480684,9.400025e-05,0.00488184,True,True,True,0.582556,0.003218142
0.034679,0.034488,0.0298819,-0.000190999,-0.00479712,False,False,False,0.582556,0.003218142
0.028682,0.028704,0.02768963,2.20016e-05,-0.0009923689,True,False,False,0.582556,0.003218142