File: Tefas/tahminler/LinearRegression_TGA.csv
x_test,y_test,y_pred,GerçekFark,TahminFark,Gerçek,Tahmin,Ongoru,Skor,mean_squared_error
0.030105,0.030097,0.0300881,-8.000061e-06,-1.68588e-05,False,False,False,0.999648,9.34307e-05
0.032745,0.032641,0.0327435,-0.000103999,-1.51619e-06,False,False,False,0.999648,9.34307e-05
0.03332,0.033435,0.0333424,0.000115,2.238527e-05,True,True,True,0.999648,9.34307e-05
0.028366,0.028439,0.0283739,7.300079e-05,7.86595e-06,True,True,True,0.999648,9.34307e-05
0.032941,0.032965,0.03296928,2.4002e-05,2.82824e-05,True,True,True,0.999648,9.34307e-05
0.030497,0.030603,0.0305354,0.000106001,3.83891e-05,True,True,True,0.999648,9.34307e-05
0.027652,0.027759,0.0276576,0.000107002,5.563721e-06,True,True,True,0.999648,9.34307e-05
0.02538,0.025324,0.02539959,-5.60004e-05,1.95894e-05,False,True,False,0.999648,9.34307e-05
0.027056,0.027138,0.02706311,8.200109e-05,7.111579e-06,True,True,True,0.999648,9.34307e-05
0.030557,0.030629,0.03056866,7.200055e-05,1.16602e-05,True,True,True,0.999648,9.34307e-05
0.033292,0.033251,0.0332951,-4.10005e-05,3.065914e-06,False,True,False,0.999648,9.34307e-05
0.031954,0.031921,0.0319704,-3.30023e-05,1.63503e-05,False,True,False,0.999648,9.34307e-05
0.028584,0.028682,0.02860144,9.799935e-05,1.74399e-05,True,True,True,0.999648,9.34307e-05
0.020102,0.020169,0.02011153,6.69993e-05,9.529293e-06,True,True,True,0.999648,9.34307e-05
0.021469,0.021454,0.0214947,-1.49999e-05,2.57362e-05,False,True,False,0.999648,9.34307e-05
0.024537,0.024508,0.02455356,-2.90014e-05,1.65589e-05,False,True,False,0.999648,9.34307e-05
0.033696,0.033657,0.03369256,-3.90001e-05,-3.438443e-06,False,False,False,0.999648,9.34307e-05
0.023806,0.023888,0.02381959,8.199923e-05,1.35899e-05,True,True,True,0.999648,9.34307e-05
0.022577,0.02261,0.0225894,3.299862e-05,1.24164e-05,True,True,True,0.999648,9.34307e-05
0.026672,0.026697,0.0266995,2.50004e-05,2.7461e-05,True,True,True,0.999648,9.34307e-05
0.021278,0.021287,0.021307,9.000301e-06,2.90275e-05,True,True,True,0.999648,9.34307e-05
0.03593,0.036027,0.0358435,9.699911e-05,-8.645654e-05,True,False,False,0.999648,9.34307e-05
0.026156,0.026172,0.0261576,1.60001e-05,1.6056e-06,True,True,True,0.999648,9.34307e-05
0.022494,0.022524,0.0225537,2.99998e-05,5.970709e-05,True,True,True,0.999648,9.34307e-05
0.020425,0.020481,0.0204666,5.60004e-05,4.15724e-05,True,True,True,0.999648,9.34307e-05
0.025636,0.025675,0.02564646,3.90001e-05,1.04588e-05,True,True,True,0.999648,9.34307e-05
0.028868,0.02898,0.0288749,0.000112001,6.89551e-06,True,True,True,0.999648,9.34307e-05
0.024023,0.02406,0.0240245,3.69996e-05,1.45845e-06,True,True,True,0.999648,9.34307e-05
0.020774,0.020884,0.0208094,0.00011,3.54294e-05,True,True,True,0.999648,9.34307e-05
0.034596,0.034697,0.0346045,0.000101,8.512288e-06,True,True,True,0.999648,9.34307e-05
0.026936,0.027122,0.02694766,0.000186,1.16602e-05,True,True,True,0.999648,9.34307e-05
0.033105,0.033202,0.03314793,9.699911e-05,4.29302e-05,True,True,True,0.999648,9.34307e-05
0.033214,0.033255,0.0332306,4.10005e-05,1.65664e-05,True,True,True,0.999648,9.34307e-05
0.020661,0.020582,0.0206906,-7.900037e-05,2.95565e-05,False,True,False,0.999648,9.34307e-05
0.030233,0.030179,0.0302273,-5.39999e-05,-5.67548e-06,False,False,False,0.999648,9.34307e-05
0.033234,0.033036,0.03325656,-0.000197999,2.25604e-05,False,True,False,0.999648,9.34307e-05
0.021169,0.021186,0.0211855,1.70004e-05,1.65422e-05,True,True,True,0.999648,9.34307e-05
0.024196,0.024231,0.0242085,3.49991e-05,1.24667e-05,True,True,True,0.999648,9.34307e-05
0.024231,0.024308,0.0242425,7.699989e-05,1.14758e-05,True,True,True,0.999648,9.34307e-05
0.02725,0.027408,0.0272442,0.000158001,-5.79096e-06,True,False,False,0.999648,9.34307e-05
0.032525,0.032675,0.0325157,0.000150003,-9.316951e-06,True,False,False,0.999648,9.34307e-05
0.020215,0.020352,0.0202665,0.000137001,5.14667e-05,True,True,True,0.999648,9.34307e-05
0.022861,0.023367,0.0229274,0.0005060006,6.64033e-05,True,True,True,0.999648,9.34307e-05
0.022524,0.022523,0.02258136,-9.983778e-07,5.73602e-05,False,True,False,0.999648,9.34307e-05
0.034372,0.034448,0.0344043,7.600337e-05,3.228709e-05,True,True,True,0.999648,9.34307e-05
0.029546,0.029597,0.02953244,5.09992e-05,-1.35601e-05,True,False,False,0.999648,9.34307e-05
0.032898,0.032985,0.03288795,8.700043e-05,-1.00508e-05,True,False,False,0.999648,9.34307e-05
0.021307,0.021319,0.0213295,1.199916e-05,2.25045e-05,True,True,True,0.999648,9.34307e-05
0.020019,0.020102,0.0200336,8.299947e-05,1.46143e-05,True,True,True,0.999648,9.34307e-05
0.027501,0.027553,0.0274851,5.19995e-05,-1.591444e-05,True,False,False,0.999648,9.34307e-05
0.022569,0.02268,0.0225962,0.000110999,2.72114e-05,True,True,True,0.999648,9.34307e-05
0.03423,0.03442,0.0342779,0.000189997,4.788488e-05,True,True,True,0.999648,9.34307e-05
0.033587,0.033669,0.0335873,8.19974e-05,3.12924e-07,True,True,True,0.999648,9.34307e-05
0.030459,0.030469,0.030496,1.00005e-05,3.69661e-05,True,True,True,0.999648,9.34307e-05
0.031508,0.031492,0.0315138,-1.60001e-05,5.789101e-06,False,True,False,0.999648,9.34307e-05
0.024382,0.024354,0.024392,-2.80011e-05,9.99682e-06,False,True,False,0.999648,9.34307e-05
0.021061,0.021058,0.0210761,-2.99886e-06,1.50856e-05,False,True,False,0.999648,9.34307e-05
0.026341,0.026369,0.0263342,2.79993e-05,-6.76326e-06,True,False,False,0.999648,9.34307e-05
0.022757,0.022782,0.0228014,2.50004e-05,4.44148e-05,True,True,True,0.999648,9.34307e-05
0.02253,0.022494,0.0225857,-3.60012e-05,5.56912e-05,False,True,False,0.999648,9.34307e-05
0.034405,0.034509,0.0343927,0.000103999,-1.231581e-05,True,False,False,0.999648,9.34307e-05
0.034697,0.034706,0.034696,9.000301e-06,-1.04681e-06,True,False,False,0.999648,9.34307e-05
0.033995,0.034153,0.0340057,0.000158001,1.06581e-05,True,True,True,0.999648,9.34307e-05
0.020639,0.020539,0.0206726,-9.999983e-05,3.36003e-05,False,True,False,0.999648,9.34307e-05
0.034929,0.034932,0.0349122,2.99886e-06,-1.67936e-05,True,False,False,0.999648,9.34307e-05
0.033652,0.033741,0.0336502,8.900091e-05,-1.847744e-06,True,False,False,0.999648,9.34307e-05
0.021244,0.021295,0.0212887,5.09992e-05,4.467368e-05,True,True,True,0.999648,9.34307e-05
0.030243,0.030353,0.03024794,0.00011,4.939735e-06,True,True,True,0.999648,9.34307e-05
0.032518,0.032525,0.0325071,6.99982e-06,-1.09151e-05,True,False,False,0.999648,9.34307e-05
0.034151,0.034081,0.03414145,-6.99982e-05,-9.547919e-06,False,False,False,0.999648,9.34307e-05
0.031699,0.031709,0.0317217,9.998679e-06,2.27019e-05,True,True,True,0.999648,9.34307e-05
0.026734,0.026763,0.02675685,2.89995e-05,2.28491e-05,True,True,True,0.999648,9.34307e-05
0.032288,0.032379,0.0323163,9.100139e-05,2.83048e-05,True,True,True,0.999648,9.34307e-05
0.032156,0.032251,0.0322015,9.499863e-05,4.548207e-05,True,True,True,0.999648,9.34307e-05
0.034706,0.034702,0.03470464,-4.000962e-06,-1.359731e-06,False,False,False,0.999648,9.34307e-05
0.0327,0.032496,0.0326891,-0.0002039969,-1.09337e-05,False,False,False,0.999648,9.34307e-05
0.034488,0.034451,0.0344827,-3.69996e-05,-5.34207e-06,False,False,False,0.999648,9.34307e-05
0.03184,0.031927,0.0318641,8.700043e-05,2.4084e-05,True,True,True,0.999648,9.34307e-05
0.020569,0.020606,0.0206016,3.69996e-05,3.25665e-05,True,True,True,0.999648,9.34307e-05
0.020382,0.020317,0.0204052,-6.500073e-05,2.31937e-05,False,True,False,0.999648,9.34307e-05
0.02713,0.026965,0.0271258,-0.000165001,-4.151836e-06,False,False,False,0.999648,9.34307e-05
0.029486,0.029594,0.0294709,0.000108,-1.50539e-05,True,False,False,0.999648,9.34307e-05
0.020507,0.020573,0.0205541,6.59991e-05,4.71361e-05,True,True,True,0.999648,9.34307e-05
0.019925,0.020019,0.0199461,9.400025e-05,2.10665e-05,True,True,True,0.999648,9.34307e-05
0.034679,0.034488,0.0346521,-0.000190999,-2.69003e-05,False,False,False,0.999648,9.34307e-05
0.028682,0.028704,0.0286931,2.20016e-05,1.10678e-05,True,True,True,0.999648,9.34307e-05